1H,13C,Intensity
1.26099,23.1439,223894.0
1.37059,23.1973,1398940.0
1.38357,25.0196,1833610.0
1.40359,23.2004,1357080.0
1.8862,27.4264,2258870.0
2.15686,20.4944,820776.0
2.8681099999999997,27.9291,1082750.0
3.19218,27.8691,1195680.0
5.08916,69.1336,4041470.0
5.66834,115.541,3583800.0
6.22804,113.272,3396790.0
6.79777,104.698,3873310.0
7.15912,128.705,3679410.0
7.5883,143.197,2596940.0
