1H,13C,Intensity
0.78138,20.8468,264091.0
1.2062700000000002,21.2171,282533.0
1.27534,21.2019,311236.0
1.66177,25.2118,144065.0
1.92445,33.4114,349339.0
1.93544,25.1931,196422.0
2.48108,35.0121,435896.0
2.52489,37.4792,482446.0
3.07306,34.7681,494971.0
5.54094,100.34200000000001,936067.0
5.6419,98.5536,791563.0
5.6961699999999995,98.5644,821102.0
5.93285,101.26,1050480.0
6.42435,99.189,835247.0
6.8673399999999996,106.473,1204290.0
